Wavelength,Hypo,Inc
186.932,992.8419000000000,1526.0933300000000
187.281,997.0756200000000,1545.8671350000000
187.63,1049.18757,1568.003125
187.978,1025.896775,1556.2883300000000
188.327,1008.950545,1563.1055000000000
188.676,1027.661555,1590.573185
189.024,1111.147445,1647.00227
189.373,1049.77577,1628.8168150000000
189.721,1041.1255600000000,1618.621815
190.069,1089.9406950000000,1657.625455
190.418,1202.263955,1720.12273
190.766,1235.79311,1754.7754500000000
191.114,1197.893815,1762.2795450000000
191.462,1207.843845,1768.7440900000000
191.81,1251.45318,1783.760455
192.158,1227.224405,1772.51136
192.506,1189.585665,1750.055915
192.854,1158.9401050000000,1721.1959100000000
193.202,1162.128495,1704.80409
193.55,1162.0712600000000,1697.000915
193.897,1124.66364,1678.5413650000000
194.245,1127.18427,1658.21455
194.593,1134.104895,1627.7577300000000
194.94,1084.2572,1599.2577250000000
195.288,1062.1983600000000,1595.717725
195.635,1098.0567100000000,1612.73591
195.982,1133.39273,1639.905005
196.33,1155.086045,1659.09636
196.677,1163.255835,1663.30863
197.024,1146.715245,1659.9322700000000
197.371,1180.523525,1676.359545
197.718,1172.545065,1672.982725
198.065,1182.014195,1664.030905
198.412,1242.0823100000000,1665.311365
198.759,1180.07472,1637.6827250000000
199.106,1102.627275,1604.62091
199.453,1066.969235,1586.0640950000000
199.8,1099.6505900000000,1593.9886350000000
200.146,1107.425245,1577.292725
200.493,1081.0649650000000,1552.57136
200.84,1072.17689,1550.10137
201.186,1067.5871650000000,1547.7222700000000
201.532,1070.4359050000000,1544.164085
201.879,1064.1014000000000,1543.60954
202.225,1145.3230050000000,1577.1536400000000
202.571,1216.317275,1607.960915
202.918,1159.96874,1600.840905
203.264,1128.25367,1597.3318100000000
203.61,1112.2298950000000,1580.8086400000000
203.956,1129.92668,1570.230455
204.302,1167.01636,1576.3195400000000
204.648,1143.5319950000000,1563.387275
204.994,1100.175455,1533.03455
205.34,1109.456045,1529.7981800000000
205.685,1090.6216100000000,1526.494545
206.031,1057.657315,1513.030005
206.377,1110.6992700000000,1537.2695500000000
206.722,1170.2583200000000,1574.18227
207.068,1165.74664,1582.67364
207.413,1161.659055,1571.532725
207.759,1159.706395,1560.66136
208.104,1149.304655,1563.965455
208.45,1187.04293,1591.141815
208.795,1233.59853,1620.28773
209.14,1251.4490950000000,1622.00909
209.485,1280.06126,1604.5359150000000
209.83,1206.18143,1536.621815
210.175,1072.13983,1457.34273
210.52,1056.776955,1436.392725
210.865,1060.91364,1421.3081850000000
211.21,1043.2452050000000,1406.896815
211.555,1126.4544450000000,1422.38955
211.9,1087.6858000000000,1375.756815
212.244,942.0808050000000,1299.7831850000000
212.589,925.9657750000000,1280.4859150000000
212.934,959.91853,1276.83773
213.278,990.3611200000000,1265.3631850000000
213.623,1038.5466100000000,1273.19546
213.967,1051.0501100000000,1285.931365
214.311,984.1026950000000,1250.93637
214.656,914.710205,1197.7727250000000
215,886.6430000000000,1166.00227
215.344,835.1596550000000,1129.087275
215.688,894.73346,1149.38546
216.032,955.794545,1187.819545
216.376,879.4764300000000,1158.053175
216.72,838.36186,1123.85182
217.064,864.1346800000000,1121.05136
217.408,919.91252,1144.419545
217.752,910.95776,1157.807725
218.096,922.30934,1179.2368200000000
218.439,1005.279125,1223.063635
218.783,1008.2106650000000,1229.25864
219.127,979.0811200000000,1215.345
219.47,955.4154950000000,1209.3840950000000
219.814,932.4364,1209.167725
220.157,969.9759750000000,1234.39909
220.5,1006.3081400000000,1259.00227
220.844,1015.8268900000000,1266.67591
221.187,1026.802935,1268.6745450000000
221.53,1024.2302050000000,1270.95363
221.873,1007.6679300000000,1269.0040850000000
222.216,1033.933705,1264.0940900000000
222.559,1024.7040600000000,1244.71728
222.902,1011.963355,1244.20136
223.245,1029.502165,1258.939545
223.588,1014.64657,1251.1413650000000
223.931,992.6095050000000,1225.220905
224.273,966.2009450000000,1177.66591
224.616,903.084965,1112.206365
224.959,832.859685,1065.48909
225.301,815.316815,1064.029995
225.644,817.9619600000000,1073.97182
225.986,820.80409,1070.4563600000000
226.329,883.383465,1096.8895500000000
226.671,907.64629,1120.2181750000000
227.013,873.1945100000000,1105.565
227.356,862.053815,1094.203635
227.698,873.80213,1097.0168150000000
228.04,930.084655,1122.668185
228.382,988.03213,1160.689085
228.724,997.786155,1188.867725
229.066,959.921575,1195.89364
229.408,929.005065,1189.38591
229.75,951.385415,1200.35454
230.092,981.9983900000000,1220.1836400000000
230.433,1002.341855,1231.64273
230.775,1020.6166400000000,1242.461815
231.117,1049.179405,1262.6422750000000
231.458,1068.9863650000000,1268.451365
231.8,1041.6785300000000,1251.3459100000000
232.141,1041.7367100000000,1264.26091
232.483,1082.87909,1300.77636
232.824,1087.58769,1314.63182
233.165,1071.1205600000000,1317.6459050000000
233.506,1085.4265050000000,1320.72546
233.848,1080.0148950000000,1305.37864
234.189,1046.1745850000000,1287.4277300000000
234.53,1062.20398,1299.6936300000000
234.871,1073.967905,1312.802735
235.212,1101.460345,1330.0859050000000
235.553,1166.7737750000000,1361.640455
235.894,1151.1528300000000,1364.84909
236.234,1123.1179050000000,1355.444095
236.575,1127.61301,1345.58682
236.916,1091.5294350000000,1324.2204500000000
237.257,1063.0091350000000,1314.4590950000000
237.597,1099.322935,1332.033185
237.938,1145.997135,1356.6768200000000
238.278,1135.105835,1355.43454
238.619,1116.2999300000000,1336.50955
238.959,1118.91202,1305.37363
239.299,1054.654865,1249.855
239.64,1002.8975200000000,1227.26091
239.98,1014.4131400000000,1238.7818150000000
240.32,1045.41766,1253.6918200000000
240.66,1059.128775,1262.56818
241,1047.3748250000000,1254.213635
241.34,1043.956325,1228.30409
241.68,959.573385,1161.67545
242.02,907.7014350000000,1125.835
242.36,928.68091,1138.45182
242.699,971.7014700000000,1161.961815
243.039,1075.3046100000000,1209.83863
243.379,1048.1090950000000,1214.92091
243.718,959.27186,1186.92455
244.058,972.2394400000000,1175.98091
244.397,957.6884250000000,1158.842725
244.737,932.18248,1148.9145450000000
245.076,989.7818550000000,1162.1400050000000
245.416,1053.198675,1184.1645450000000
245.755,997.3929800000000,1176.6977350000000
246.094,944.9219250000000,1165.7686350000000
246.433,954.1157300000000,1170.78863
246.772,1004.3342,1180.425005
247.111,1027.514195,1179.253175
247.45,1008.8682500000000,1165.07909
247.789,969.5587750000000,1129.3618150000000
248.128,933.900695,1108.119995
248.467,947.6773100000000,1119.127725
248.806,933.3565400000000,1110.5554550000000
249.145,967.9203100000000,1126.5531800000000
249.483,999.55234,1151.587725
249.822,952.3466450000000,1145.50364
250.161,925.3980450000000,1141.2500000000000
250.499,949.10479,1147.557725
250.838,1010.7258750000000,1173.8054550000000
251.176,1030.2088850000000,1199.968185
251.514,1092.2610450000000,1239.71727
251.853,1125.08364,1270.97637
252.191,1074.64364,1268.598185
252.529,1117.7605200000000,1286.87772
252.867,1138.676225,1300.13909
253.205,1132.4217100000000,1308.9963600000000
253.543,1160.397625,1319.930005
253.881,1118.397685,1293.525905
254.219,1068.8076600000000,1266.0950000000000
254.557,1123.182305,1271.465905
254.895,1083.7688400000000,1233.04045
255.233,1004.3419200000000,1198.93863
255.571,1050.5038100000000,1228.47227
255.908,1053.307515,1238.9759050000000
256.246,1030.4797250000000,1233.2068200000000
256.583,1058.2185000000000,1243.0850000000000
256.921,1073.00461,1248.3336300000000
257.258,1066.619615,1241.79409
257.596,1095.337615,1249.6354500000000
257.933,1105.5381100000000,1249.90455
258.27,1045.873075,1216.045905
258.608,1090.714055,1240.29636
258.945,1127.95461,1274.44545
259.282,1060.8828000000000,1251.7004550000000
259.619,1045.59933,1248.4181750000000
259.956,1082.8480400000000,1261.67045
260.293,1081.2865450000000,1245.599095
260.63,1052.3126900000000,1216.99318
260.967,1039.37801,1205.43773
261.304,1043.279125,1212.3622700000000
261.64,1069.4236,1229.7586350000000
261.977,1112.11182,1259.8995450000000
262.314,1116.299825,1279.04909
262.65,1120.50846,1279.72773
262.987,1120.844685,1270.5604550000000
263.323,1090.081925,1255.6022700000000
263.66,1054.2586350000000,1231.81682
263.996,1105.063255,1226.237275
264.332,1121.297725,1201.2072700000000
264.669,1010.8961500000000,1143.38636
265.005,955.20448,1122.5104550000000
265.341,942.601855,1123.6904500000000
265.677,952.7566850000000,1138.473185
266.013,991.2597150000000,1155.62045
266.349,1003.9392300000000,1145.64182
266.685,991.646815,1132.0736350000000
267.021,995.0242650000000,1137.5286350000000
267.357,1001.6240250000000,1140.999545
267.693,1010.5785250000000,1139.3054500000000
268.029,1072.73664,1163.238635
268.364,1114.0340900000000,1209.22773
268.7,1080.918465,1234.2754550000000
269.036,1060.89888,1240.247725
269.371,1042.336155,1234.9536400000000
269.707,1035.591015,1232.695
270.042,1093.0637700000000,1255.26727
270.377,1158.71475,1289.4104500000000
270.713,1138.9950750000000,1297.14637
271.048,1139.1455950000000,1306.4418200000000
271.383,1173.7537700000000,1335.2131800000000
271.718,1272.8764300000000,1380.687725
272.053,1289.6330750000000,1372.6954600000000
272.389,1172.81668,1319.05909
272.724,1180.916785,1298.82637
273.059,1118.44182,1233.505
273.393,970.0982500000000,1155.2972750000000
273.728,942.4308000000000,1137.3204500000000
274.063,985.6770250000000,1148.250905
274.398,997.8914300000000,1153.8740900000000
274.733,980.0624500000000,1152.206365
275.067,1028.4833900000000,1147.1086300000000
275.402,954.40535,1074.36319
275.736,947.4238800000000,1059.334995
276.071,1007.76511,1102.184095
276.405,955.127725,1103.405
276.74,1064.97559,1171.91409
277.074,1149.3734300000000,1242.2613650000000
277.408,1086.55346,1239.065
277.742,1039.9961900000000,1220.725455
278.077,1063.5474800000000,1219.95
278.411,1076.8709450000000,1214.27636
278.745,1051.0814350000000,1198.63909
279.079,1174.7000400000000,1244.2540950000000
279.413,1180.304585,1259.76455
279.747,1114.53528,1249.22955
280.081,1133.37993,1257.1254550000000
280.414,1071.244615,1227.921365
280.748,1052.32286,1217.4036350000000
281.082,1071.3764700000000,1224.203635
281.416,1077.68206,1229.84045
281.749,1080.6749250000000,1237.027265
282.083,1079.848745,1231.2050000000000
282.416,1114.615275,1232.074995
282.75,1117.5808700000000,1222.25591
283.083,1121.978845,1226.4554500000000
283.416,1108.97287,1243.73409
283.75,1093.9333550000000,1256.82772
284.083,1203.6484250000000,1293.28272
284.416,1194.0330050000000,1251.7231850000000
284.749,1038.242905,1161.1218250000000
285.082,977.6944050000000,1133.455905
285.415,1024.5984250000000,1135.97727
285.748,1014.8179050000000,1109.66
286.081,940.65388,1078.568635
286.414,977.3059850000000,1107.33455
286.747,1047.2233900000000,1157.730455
287.08,1066.6034250000000,1175.765
287.412,1021.5476900000000,1146.8868150000000
287.745,948.711675,1111.6404550000000
288.078,1056.5086300000000,1169.807725
288.41,1211.829615,1273.474995
288.743,1189.09077,1307.1118150000000
289.075,1138.7817500000000,1303.7118150000000
289.408,1244.34262,1357.13409
289.74,1295.5931100000000,1405.073635
290.072,1258.24934,1406.906365
290.405,1258.49525,1396.218185
290.737,1239.5187,1372.565905
291.069,1269.8169550000000,1386.26636
291.401,1296.6981150000000,1405.74182
291.733,1248.31248,1383.63909
292.065,1207.8785950000000,1359.1918150000000
292.397,1208.3185950000000,1353.115455
292.729,1207.0396100000000,1346.58545
293.061,1172.98521,1324.168635
293.393,1192.1275850000000,1316.1486300000000
293.724,1164.19479,1287.61091
294.056,1123.09622,1264.0318150000000
294.388,1153.1051350000000,1282.29818
294.719,1166.0719550000000,1296.83227
295.051,1208.630905,1299.3254500000000
295.382,1166.5082900000000,1256.280905
295.714,1092.093425,1223.6890900000000
296.045,1094.301925,1234.213635
296.377,1126.50056,1242.86454
296.708,1138.4607750000000,1226.8727350000000
297.039,1065.023215,1181.2668150000000
297.37,1061.44731,1182.73182
297.701,1087.40717,1209.99864
298.032,1088.5686350000000,1220.563635
298.363,1085.1948200000000,1219.3231800000000
298.694,1085.29504,1220.595915
299.025,1208.7145800000000,1277.6390900000000
299.356,1214.7329,1305.19045
299.687,1149.225,1288.7304550000000
300.018,1154.042095,1278.127275
300.349,1179.9995500000000,1286.4904600000000
300.679,1251.3907650000000,1329.487725
301.01,1232.74682,1346.179095
301.341,1194.1622750000000,1342.1690900000000
301.671,1194.8495050000000,1339.58318
302.002,1212.84101,1340.19227
302.332,1211.17913,1335.55591
302.662,1194.082685,1331.9909050000000
302.993,1228.394475,1358.965
303.323,1284.1583900000000,1382.772275
303.653,1261.935775,1352.545
303.983,1230.40814,1327.119995
304.313,1203.07825,1314.665905
304.643,1204.862685,1301.97545
304.974,1185.811045,1270.10545
305.303,1125.2723800000000,1207.89591
305.633,1036.6253500000000,1130.07364
305.963,955.25059,1079.362725
306.293,976.442445,1077.49727
306.623,970.6492300000000,1041.8172750000000
306.953,842.20703,949.3813700000000
307.282,861.0215350000000,936.1295450000000
307.612,888.8218150000000,947.5759050000000
307.941,829.4355200000000,929.4104500000000
308.271,855.0879400000000,937.910455
308.6,859.292385,940.8750050000000
308.93,906.7159750000000,976.068635
309.259,1016.7593350000000,1042.84363
309.589,1017.1159750000000,1053.5495400000000
309.918,904.0470300000000,1002.5450000000000
310.247,900.5195050000000,1001.613175
310.576,1022.375805,1078.68546
310.905,1043.2207700000000,1120.4172750000000
311.234,1087.84895,1138.471815
311.563,1073.53388,1106.61136
311.892,923.5229350000000,1033.7340900000000
312.221,951.4409100000000,1058.08409
312.55,1001.74193,1089.48364
312.879,979.6005650000000,1077.9131800000000
313.208,1022.45542,1103.6004550000000
313.536,1093.32332,1153.035
313.865,1064.872095,1160.26954
314.194,1044.75297,1158.77182
314.522,1051.71643,1158.114085
314.851,1062.7692650000000,1157.47136
315.179,1153.9862550000000,1206.4240900000000
315.508,1200.7309450000000,1266.43136
315.836,1145.124825,1274.6468200000000
316.164,1143.63489,1272.283635
316.493,1199.2466450000000,1286.7486350000000
316.821,1183.0497500000000,1290.7818150000000
317.149,1170.25126,1300.154545
317.477,1250.3971000000000,1331.83864
317.805,1211.1686,1306.0922700000000
318.133,1170.764545,1288.6400000000000
318.461,1200.909655,1307.53818
318.789,1218.98983,1323.2522800000000
319.117,1224.8838800000000,1337.17636
319.445,1203.877835,1335.91046
319.773,1198.28619,1330.6690950000000
320.1,1207.84461,1327.90454
320.428,1225.580735,1342.437275
320.756,1240.294755,1348.527275
321.083,1205.84332,1315.7131800000000
321.411,1231.1902450000000,1315.2186350000000
321.738,1228.0574050000000,1314.3759
322.066,1150.904365,1289.44227
322.393,1182.72975,1303.1672700000000
322.72,1212.6497200000000,1310.246815
323.048,1174.623705,1283.97727
323.375,1142.3096150000000,1252.4881850000000
323.702,1130.753705,1240.8059050000000
324.029,1104.6115750000000,1233.0518200000000
324.356,1102.4157050000000,1231.750915
324.683,1165.8269600000000,1253.65455
325.01,1175.320705,1265.1395500000000
325.337,1168.686115,1284.54227
325.664,1193.688075,1318.32409
325.991,1241.96794,1323.90909
326.318,1188.5115700000000,1259.1127250000000
326.644,1125.10374,1219.8099950000000
326.971,1143.9687050000000,1235.50045
327.298,1122.96461,1237.2186350000000
327.624,1117.2632550000000,1248.9918200000000
327.951,1097.473495,1252.888185
328.277,1137.272305,1268.988635
328.604,1203.734365,1280.5768150000000
328.93,1143.823355,1235.87727
329.257,1024.95968,1167.76
329.583,976.0782250000000,1131.534095
329.909,1075.2663300000000,1179.4136400000000
330.235,1111.0120650000000,1228.375
330.562,1065.5627950000000,1228.61818
330.888,1045.43067,1221.53682
331.214,974.1905650000000,1199.9209150000000
331.54,941.97157,1192.53591
331.866,927.344235,1195.9472800000000
332.192,968.9734300000000,1220.785455
332.517,1060.69972,1269.4509050000000
332.843,1084.74689,1313.0659100000000
333.169,1076.31266,1339.90728
333.495,1105.0135,1360.511825
333.82,1083.9924850000000,1359.04682
334.146,1052.1811150000000,1356.9613650000000
334.472,1079.4186,1371.96318
334.797,1070.8354200000000,1369.509545
335.123,1018.4744400000000,1348.6277300000000
335.448,983.953355,1313.45318
335.773,900.45035,1255.14955
336.099,860.874095,1233.2545500000000
336.424,865.811645,1236.61273
336.749,832.45937,1224.9413650000000
337.074,836.4087000000000,1220.0463550000000
337.4,837.9330450000000,1211.42909
337.725,802.5532250000000,1196.47273
338.05,781.5432200000000,1191.958635
338.375,785.3762250000000,1185.8777250000000
338.7,738.392345,1159.19591
339.025,715.71032,1152.0531850000000
339.349,748.6155950000000,1173.295915
339.674,720.553845,1176.1959100000000
339.999,689.4858400000000,1165.6068150000000
340.324,664.514335,1143.46863
340.648,615.933115,1107.701365
340.973,599.3024450000000,1092.795
341.297,575.8891950000000,1092.783635
341.622,554.0135700000000,1094.31773
341.946,571.55007,1109.17091
342.271,602.15566,1140.017265
342.595,579.1633600000000,1153.0536400000000
342.92,568.9087450000000,1166.318185
343.244,585.6299250000000,1190.539995
343.568,625.4695800000000,1205.56636
343.892,606.90161,1187.03409
344.216,563.2941300000000,1181.6977300000000
344.54,591.6901700000000,1219.14909
344.864,590.7136800000000,1240.4031850000000
345.188,575.6261850000000,1246.77545
345.512,574.00109,1248.3413700000000
345.836,540.080455,1234.60954
346.16,542.010385,1223.53591
346.484,481.019195,1177.571365
346.808,374.9220300000000,1124.59182
347.131,367.21038500000000,1114.3722750000000
347.455,419.18283500000000,1135.021365
347.779,400.72070500000000,1145.6754600000000
348.102,320.0698900000000,1127.688635
348.426,317.616855,1128.48727
348.749,326.42811500000000,1128.193185
349.072,298.658495,1106.349085
349.396,295.9755650000000,1100.57818
349.719,266.105765,1094.7545400000000
350.042,290.6078000000000,1120.8363650000000
350.366,321.11489500000000,1160.7150000000000
350.689,268.4463300000000,1156.6200050000000
351.012,275.09535000000000,1167.543635
351.335,294.20706000000000,1191.0990900000000
351.658,289.7908050000000,1204.3577300000000
351.981,266.835105,1201.29273
352.304,257.7264050000000,1189.0081850000000
352.627,245.64308000000000,1176.002275
352.95,196.00754500000000,1161.4740850000000
353.272,184.36811,1166.35545
353.595,187.34752000000000,1171.655455
353.918,138.18311000000000,1149.15409
354.241,120.92234000000000,1136.03318
354.563,99.20689000000000,1119.3536400000000
354.886,39.677375,1089.829995
355.208,-6.939125000000020,1074.000005
355.531,17.536085000000000,1074.75591
355.853,-1.8652750000001100,1047.640005
356.176,-33.09598500000000,1042.02318
356.498,85.11916500000010,1075.784095
356.82,-3.7908449999999900,991.60363
357.142,-189.79548500000000,897.4177300000000
357.465,-186.14664500000000,908.505905
357.787,-181.0826200000000,923.35591
358.109,-167.728705,940.291365
358.431,-134.32881500000000,964.617725
358.753,-123.2937700000000,968.7668200000000
359.075,-171.63433500000000,936.310005
359.397,-172.34308,929.8381750000000
359.719,-136.22702500000000,943.26773
360.04,-215.48863500000000,900.97046
360.362,-89.13790000000000,953.5718200000000
360.684,-22.522795000000000,1013.7422800000000
361.005,-164.61755000000000,985.8218150000000
361.327,-164.941775,987.453185
361.649,-146.49307500000000,982.3459100000000
361.97,-174.04804000000000,953.979545
362.292,-207.39234,928.3590900000000
362.613,-186.26800000000000,939.241825
362.935,-140.7563,970.4309050000000
363.256,-115.71010500000000,986.048185
363.577,-98.63021000000000,996.20909
363.898,-93.69702499999990,1010.9295500000000
364.22,3.2069549999999900,1038.3222700000000
364.541,-61.24199000000000,980.762275
364.862,-226.79860000000000,894.5295450000000
365.183,-234.40290500000000,871.87591
365.504,-230.74510000000000,863.7981900000000
365.825,-197.97266000000000,873.19045
366.146,-242.26154000000000,846.4259100000000
366.467,-305.59238000000000,814.247275
366.788,-326.4710800000000,798.66819
367.108,-270.18513500000000,813.859095
367.429,-265.1698900000000,812.0109100000000
367.75,-331.05423,785.339095
368.07,-191.22039000000000,865.8359050000000
368.391,-106.13279500000000,948.515915
368.712,-128.66168000000000,969.1804550000000
369.032,-83.52405000000000,997.9318200000000
369.353,-93.54786000000000,1000.410455
369.673,-22.029789999999900,1025.97227
369.993,-26.71602000000010,1018.567725
370.314,-111.16069500000000,984.027275
370.634,-83.35304000000000,982.5045500000000
370.954,-101.972305,949.1822750000000
371.274,-156.4079700000000,923.6281800000000
371.594,-181.68740500000000,918.9804600000000
371.915,-222.633595,894.786365
372.235,-238.9067800000000,881.628635
372.555,-203.27993000000000,880.8927300000000
372.875,-216.827405,854.4036400000000
373.194,-276.489995,823.7331850000000
373.514,-213.73349500000000,855.659095
373.834,-150.34416,891.97364
374.154,-212.66388500000000,867.4018150000000
374.474,-176.38119000000000,891.1463600000000
374.793,-85.58006500000000,946.1104600000000
375.113,-151.40506500000000,915.2131850000000
375.433,-188.94402000000000,888.5563650000000
375.752,-175.99699500000000,877.9054550000000
376.072,-244.0586750000000,824.0181800000000
376.391,-239.38352500000000,814.208185
376.71,-240.02041500000000,821.2950000000000
377.03,-299.6771600000000,806.3163700000000
377.349,-293.32716500000000,816.3186350000000
377.668,-197.37095000000000,851.312725
377.988,-206.83707000000000,834.849995
378.307,-289.455005,781.76227
378.626,-272.0012250000000,774.8309100000000
378.945,-270.8681450000000,784.4095450000000
379.264,-284.648955,789.3740900000000
379.583,-216.58553000000000,824.6949950000000
379.902,-195.06636000000000,845.6109150000000
380.221,-211.02325500000000,853.0599950000000
380.54,-207.48709500000000,866.74591
380.859,-224.83822000000000,862.91318
381.177,-220.74986,857.042725
381.496,-163.09241500000000,881.76545
381.815,-108.68594500000000,922.37273
382.133,-83.04657499999990,947.553635
382.452,-97.73325,949.0404550000000
382.77,-127.31041500000000,937.2695500000000
383.089,-136.11993000000000,929.1677250000000
383.407,-134.14598,928.3254550000000
383.726,-147.59999500000000,925.2354600000000
384.044,-176.34164000000000,916.2395450000000
384.363,-181.16112000000000,912.0086350000000
384.681,-189.7514,903.1677300000000
384.999,-167.88248500000000,912.0318150000000
385.317,-163.81423500000000,920.89863
385.635,-135.89280000000000,938.7227250000000
385.953,-83.56692000000000,970.2118250000000
386.271,-46.775035,989.9227300000000
386.589,-65.26839500000010,984.82545
386.907,-63.91919999999990,989.8045450000000
387.225,-33.27161000000000,1003.99909
387.543,-49.43181500000000,996.4977250000000
387.861,-68.00541500000010,981.7781800000000
388.179,-94.69168000000000,964.0486350000000
388.497,-96.66692,954.5013700000000
388.814,-119.42423500000000,930.759995
389.132,-159.48133000000000,900.9545450000000
389.449,-188.1859800000000,880.5650050000000
389.767,-176.77461500000000,875.780455
390.084,-118.4621350000000,893.4872700000000
390.402,-113.06661000000000,889.9913650000000
390.719,-144.20769500000000,860.86227
391.037,-154.44930000000000,849.2081800000000
391.354,-137.007025,859.8895450000000
391.671,-84.02170999999990,878.012275
391.989,-109.82308000000000,862.7427250000000
392.306,-104.82891000000000,856.5363650000000
392.623,-89.99737999999990,855.29091
392.94,-137.28322000000000,838.8436350000000
393.257,-142.44000000000000,840.2272750000000
393.574,-125.45269500000000,832.7540850000000
393.891,-151.55884000000000,804.9372800000000
394.208,-161.89024500000000,805.7990950000000
394.525,-136.67731000000000,828.86682
394.842,-130.33140500000000,828.47454
395.159,-70.65119000000000,879.115455
395.475,1.0808750000000000,943.064095
395.792,27.292100000000000,947.471825
396.109,1.2502449999999500,920.963635
396.425,-48.646120000000000,897.68409
396.742,-82.46727000000000,891.0318200000000
397.058,-33.141610000000000,901.5790900000000
397.375,8.238250000000110,922.68
397.691,-36.354364999999900,932.5145450000000
398.008,-46.09318499999990,934.2495450000000
398.324,-46.63192000000000,924.49273
398.64,-75.01031499999990,860.3636400000000
398.957,-125.69014000000000,789.296815
399.273,-190.6731800000000,763.791365
399.589,-130.49908500000000,793.7618200000000
399.905,-120.20818000000000,810.5463700000000
400.221,-178.60779000000000,781.7190950000000
400.537,-234.43273,732.976815
400.853,-249.23492500000000,700.262735
401.169,-254.84989500000000,687.3740850000000
401.485,-354.26429500000000,649.4922750000000
401.801,-345.9109800000000,644.98091
402.117,-349.88430000000000,637.3713650000000
402.433,-332.55202500000000,650.5263650000000
402.748,-274.98132500000000,689.83636
403.064,-290.5335950000000,699.8963700000000
403.38,-225.19004000000000,729.3349950000000
403.695,-223.1493700000000,736.6150000000000
404.011,-217.37700000000000,761.4613600000000
404.326,-145.21455000000000,820.4004500000000
404.642,-126.31465500000000,854.76909
404.957,-81.21699500000010,894.9872700000000
405.273,-82.0173850000001,912.7418150000000
405.588,-68.77705999999980,933.783185
405.903,-27.563290000000100,959.7100000000000
406.218,-48.025249999999900,948.7022650000000
406.534,-69.96790500000010,937.6081800000000
406.849,-50.88034999999990,940.6995450000000
407.164,-15.266860000000000,948.1818150000000
407.479,-41.94661500000000,943.6422650000000
407.794,-84.50070000000010,927.02227
408.109,-103.01884000000000,908.661825
408.424,-126.15853000000000,893.4063600000000
408.739,-114.17360000000000,885.7127250000000
409.054,-139.41979000000000,859.097725
409.369,-202.99493000000000,826.593635
409.683,-166.64811000000000,837.5259100000000
409.998,-144.8760850000000,856.0577250000000
410.313,-128.43986000000000,857.5427300000000
410.627,-90.98552499999990,856.5959050000000
410.942,-137.11661500000000,845.1313600000000
411.257,-169.916745,835.70228
411.571,-157.42843000000000,842.99136
411.886,-143.06754500000000,853.1072750000000
412.2,-148.46486500000000,852.8849950000000
412.514,-118.58504000000000,872.39454
412.829,-90.38699000000000,896.961365
413.143,-97.39433500000000,903.2227300000000
413.457,-79.06685500000000,902.1345450000000
413.771,-79.9070999999999,882.345455
414.086,-73.12727499999990,865.8363650000000
414.4,-43.22570500000000,880.4959050000000
414.714,-49.294230000000100,896.6945450000000
415.028,-76.98129000000010,886.09637
415.342,-119.96408500000000,861.35955
415.656,-96.15444000000000,854.45227
415.97,-108.97157500000000,821.7122700000000
416.284,-202.86136000000000,766.8272800000000
416.597,-244.03584000000000,743.040005
416.911,-249.05493,732.5213600000000
417.225,-228.67671000000000,739.100455
417.539,-167.352165,775.44227
417.852,-151.08352500000000,798.2886400000000
418.166,-155.41458500000000,800.1881800000000
418.479,-102.78724000000000,820.3663600000000
418.793,-82.3313649999999,837.4018200000000
419.106,-91.67188500000000,839.8859100000000
419.42,-34.84629999999990,871.989995
419.733,33.52737999999990,918.36591
420.047,33.70685500000000,926.6059050000000
420.36,5.482834999999970,905.3609100000000
420.673,-55.676289999999900,871.0831850000000
420.986,-91.22989500000000,849.930455
421.3,-102.19507500000000,837.86545
421.613,-121.00038500000000,823.94591
421.926,-131.50105000000000,814.90818
422.239,-126.02901500000000,815.3091000000000
422.552,-118.51227000000000,819.1890950000000
422.865,-117.04668000000000,821.8131800000000
423.178,-65.95297499999990,825.329995
423.491,-105.55234500000000,782.3204500000000
423.804,-151.35493500000000,763.99545
424.116,-47.76836000000010,810.58227
424.429,-90.68490000000000,790.7286350000000
424.742,-148.5646500000000,759.8945500000000
425.054,-150.10989000000000,748.774095
425.367,-164.7817850000000,731.114545
425.68,-167.96520500000000,711.14591
425.992,-234.33766000000000,675.0954500000000
426.305,-251.2569300000000,663.81863
426.617,-242.95780000000000,663.6904500000000
426.93,-147.04692500000000,713.44636
427.242,-107.66126000000000,759.5863650000000
427.554,-148.2190250000000,753.1272700000000
427.867,-48.70954000000010,771.5104600000000
428.179,-90.32717000000000,752.71682
428.491,-146.286745,735.295005
428.803,-136.64343000000000,735.07
429.115,-160.13797,727.0440950000000
429.427,-121.300525,753.92
429.739,-138.18059500000000,760.3013650000000
430.051,-164.6103200000000,748.3259050000000
430.363,-168.76633000000000,741.26227
430.675,-167.7734600000000,738.12318
430.987,-172.788,732.4068200000000
431.299,-130.46374000000000,742.92909
431.611,-67.15185500000000,774.36591
431.923,-53.914750000000000,792.0163650000000
432.234,-75.84143500000020,770.286365
432.546,-103.81804500000000,741.3145400000000
432.858,-160.21377000000000,705.305915
433.169,-235.510495,662.6381750000000
433.481,-249.53157,656.6063700000000
433.792,-230.65329000000000,662.6886400000000
434.104,-220.48143000000000,653.291825
434.415,-234.22859500000000,623.5263650000000
434.726,-293.52209500000000,580.2227300000000
435.038,-283.645455,576.716365
435.349,-296.93300000000000,569.631365
435.66,-273.5676900000000,587.7327300000000
435.971,-199.83688500000000,644.1213700000000
436.283,-144.34989500000000,685.933635
436.594,-109.10993500000000,709.3713600000000
436.905,-138.84528,699.0645400000000
437.216,-171.77223500000000,660.853635
437.527,-220.74881000000000,622.9604600000000
437.838,-199.34356000000000,639.135455
438.149,-122.40639500000000,680.390455
438.46,-134.335695,674.1890950000000
438.77,-183.13427000000000,646.8740900000000
439.081,-218.5083250000000,632.2195450000000
439.392,-233.46073000000000,617.51546
439.703,-263.051155,588.2836400000000
440.013,-275.0234650000000,576.87318
440.324,-257.12413000000000,589.76136
440.634,-230.22741500000000,617.248175
440.945,-117.30604500000000,661.84273
441.256,-178.63095000000000,622.74136
441.566,-271.444265,574.5436400000000
441.876,-229.51661000000000,587.07772
442.187,-193.85178500000000,618.00909
442.497,-170.48769000000000,648.4636350000000
442.807,-166.2850700000000,657.4054550000000
443.118,-141.02839500000000,672.2504500000000
443.428,-129.28727000000000,691.2900050000000
443.738,-105.88821500000000,700.6272750000000
444.048,-132.8760850000000,674.5204550000000
444.358,-195.28413000000000,644.6281800000000
444.668,-94.24699999999980,697.7040900000000
444.978,-28.361185000000000,751.3636350000000
445.288,-49.368424999999900,756.309095
445.598,-22.89584500000000,752.8713600000000
445.908,-77.92538500000010,705.22636
446.218,-166.81521000000000,653.9040950000000
446.528,-161.70248500000000,654.4081750000000
446.837,-161.34202500000000,658.0009100000000
447.147,-182.2640950000000,649.63545
447.457,-117.59534500000000,674.244095
447.766,-104.20374000000000,683.530005
448.076,-172.64905,651.868185
448.386,-190.63220000000000,629.6550050000000
448.695,-197.56056,611.5318200000000
449.005,-200.2153200000000,600.7404500000000
449.314,-146.55413,619.89409
449.623,-136.61878000000000,633.7472700000000
449.933,-185.56618500000000,624.714545
450.242,-204.2494700000000,619.3477350000000
450.551,-211.67814000000000,618.7195450000000
450.861,-190.4485250000000,623.542735
451.17,-162.13590500000000,631.180915
451.479,-127.00822000000000,648.8895500000000
451.788,-103.37118500000000,656.75864
452.097,-110.72696000000000,652.45136
452.406,-109.44052500000000,663.748635
452.715,-83.08280000000000,684.3313600000000
453.024,-62.65066000000000,704.2750000000000
453.333,-74.81587000000000,712.93273
453.642,-62.84338500000000,716.6622750000000
453.951,-82.55244999999990,703.769545
454.259,-106.18031500000000,682.7600000000000
454.568,-124.29440500000000,658.6659100000000
454.877,-131.13511000000000,634.6827250000000
455.186,-170.10004000000000,593.694995
455.494,-177.42143,579.28137
455.803,-182.1201750000000,566.4445450000000
456.111,-244.97787000000000,525.55591
456.42,-255.90601500000000,515.706365
456.728,-237.76843000000000,508.90545500000000
457.037,-290.29836,464.438635
457.345,-335.66612,438.1922700000000
457.653,-306.63996500000000,451.53091000000000
457.962,-278.35395000000000,466.6468200000000
458.27,-267.26573500000000,486.22408500000000
458.578,-199.00007000000000,532.8722700000000
458.886,-151.81416000000000,566.1572750000000
459.194,-171.82982000000000,568.4504550000000
459.503,-140.34958000000000,596.37091
459.811,-130.29689000000000,621.024545
460.119,-128.86706000000000,635.1995450000000
460.427,-49.57436499999990,680.72273
460.735,28.863320000000000,723.010455
461.042,-27.04832000000000,690.186365
461.35,-88.4040500000001,655.357725
461.658,-91.76279500000000,654.5368250000000
461.966,-92.47154,650.61591
462.274,-72.8078000000001,648.2054500000000
462.581,-63.281815000000000,639.3318200000000
462.889,-96.18443500000010,619.644095
463.197,-108.980145,592.82136
463.504,-183.503915,531.2927250000000
463.812,-264.50884500000000,481.01591000000000
464.119,-291.550385,454.93000000000000
464.427,-227.560385,467.90227500000000
464.734,-208.50087000000000,478.4095450000000
465.042,-287.68374500000000,454.13727000000000
465.349,-304.21031000000000,448.2631900000000
465.656,-282.447865,450.68000500000000
465.964,-232.36556000000000,463.64182000000000
466.271,-208.79450500000000,466.6190900000000
466.578,-249.34248500000000,441.749545
466.885,-229.72668500000000,460.50817500000000
467.192,-200.45755000000000,498.40273000000000
467.499,-192.33741000000000,513.7690900000000
467.806,-171.67017000000000,522.23864
468.113,-158.30901500000000,536.24
468.42,-149.31780000000000,557.08727
468.727,-128.19507,562.4454550000000
469.034,-139.27231500000000,532.56545
469.341,-178.80007,488.50591
469.648,-212.3459100000000,461.4213650000000
469.954,-211.98395500000000,475.10818000000000
470.261,-183.75999500000000,510.98727500000000
470.568,-182.21566500000000,520.1172700000000
470.874,-167.6425250000000,503.8699950000000
471.181,-202.42947500000000,451.3213700000000
471.488,-248.58661000000000,405.7504500000000
471.794,-304.8757350000000,369.451365
472.101,-354.4916100000000,336.0859100000000
472.407,-323.31591000000000,344.40727000000000
472.713,-261.38521000000000,385.7840850000000
473.02,-221.3792000000000,427.4450000000000
473.326,-195.3814300000000,446.95864000000000
473.632,-258.59252000000000,403.20363500000000
473.939,-353.849865,344.732265
474.245,-342.9722050000000,346.30591000000000
474.551,-229.18070000000000,405.5140900000000
474.857,-173.92919500000000,451.6395500000000
475.163,-180.08566500000000,475.80409
475.469,-145.51622500000000,506.2822750000000
475.775,-133.77692000000000,519.616365
476.081,-141.01461000000000,526.0022800000000
476.387,-101.06815000000000,536.116815
476.693,-72.16716499999980,514.6818200000000
476.999,-120.79185500000000,467.8600050000000
477.305,-143.7309450000000,462.0636350000000
477.611,-137.9137750000000,452.7977300000000
477.916,-253.59776500000000,373.76318000000000
478.222,-320.73941000000000,335.389085
478.528,-295.83003500000000,354.07227500000000
478.833,-310.90053,354.09454000000000
479.139,-294.16042000000000,359.27727000000000
479.444,-239.0433600000000,363.38181
479.75,-299.42878,306.03227000000000
480.055,-333.6272350000000,274.7659100000000
480.361,-200.49314500000000,343.18090500000000
480.666,-211.03699500000000,371.74318500000000
480.972,-246.97531500000000,377.0827300000000
481.277,-109.6006300000000,449.8522750000000
481.582,-101.03420000000000,481.77681500000000
481.887,-185.58514500000000,460.8263550000000
482.193,-178.0943350000000,457.01227500000000
482.498,-164.0267550000000,451.10317500000000
482.803,-170.61678000000000,434.96454500000000
483.108,-90.61353000000000,467.225455
483.413,-53.103360000000100,508.53727000000000
483.718,-71.09559500000010,514.9572750000000
484.023,-55.902725000000000,520.1409100000000
484.328,-78.30098000000020,514.9740900000000
484.633,-101.33125500000000,502.9759150000000
484.938,-81.09958500000020,508.75181000000000
485.242,-38.78325000000000,516.31091
485.547,-101.20132500000000,467.0522750000000
485.852,-190.55842500000000,414.54545500000000
486.157,-167.56643500000000,409.8790850000000
486.461,-95.61475000000000,397.29955000000000
486.766,-214.39601500000000,304.51955000000000
487.071,-334.32594500000000,231.69000000000000
487.375,-335.917065,215.38772500000000
487.68,-386.1129,194.66682000000000
487.984,-339.57210000000000,196.100455
488.289,-386.663495,140.78591500000000
488.593,-507.7322300000000,77.7122749999996
488.897,-435.3555950000000,109.56318000000000
489.202,-373.5239200000000,151.3509050000000
489.506,-404.0384250000000,155.76045500000000
489.81,-386.13685,162.889095
490.114,-240.42027500000000,246.28136500000000
490.419,-170.73937,317.11182000000000
490.723,-209.470775,317.745905
491.027,-218.73524000000000,323.403185
491.331,-235.4232150000000,325.30864000000000
491.635,-139.58968000000000,379.0918200000000
491.939,-42.031814999999800,442.74318500000000
492.243,-90.19853,425.105905
492.547,-141.64224000000000,383.42545000000000
492.851,-167.6478000000000,351.8354500000000
493.154,-192.73339500000000,334.00817500000000
493.458,-195.30950500000000,334.2400000000000
493.762,-207.71863500000000,330.63181500000000
494.066,-166.43007000000000,350.72409000000000
494.369,-116.68867000000000,370.587275
494.673,-135.90259000000000,377.7018150000000
494.977,-145.57213000000000,392.97273500000000
495.28,-146.42154500000000,392.82409000000000
495.584,-89.72996499999990,414.8768150000000
495.887,-22.019935000000100,454.00727000000000
496.191,-14.407480000000100,480.41409500000000
496.494,7.458314999999910,508.34454000000000
496.798,21.298780000000000,524.661365
497.101,21.242165000000000,524.305455
497.404,12.296260000000000,518.619545
497.707,25.571855000000000,516.8054500000000
498.011,60.42261999999990,485.64364
498.314,-6.206635000000010,414.296825
498.617,-140.38343000000000,342.35909000000000
498.92,-208.8137450000000,304.51181500000000
499.223,-187.12262000000000,301.9231800000000
499.526,-196.92342500000000,283.5286400000000
499.829,-222.9659100000000,266.2759050000000
500.132,-228.85266000000000,241.76272500000000
500.435,-281.05419500000000,192.14091500000000
500.738,-272.3166800000000,167.27909
501.041,-343.43545500000000,108.7445450000000
501.344,-387.06807500000000,73.94318499999990
501.647,-317.60192000000000,106.38454500000000
501.949,-277.92968500000000,149.02500000000000
502.252,-255.86496500000000,181.42136000000000
502.555,-301.84182,173.74364000000000
502.857,-247.00385000000000,190.71909000000000
503.16,-246.01427,173.89363500000000
503.463,-300.3175500000000,144.66500000000000
503.765,-228.121715,179.96499500000000
504.068,-238.063,180.82455000000000
504.37,-204.05527500000000,208.54909500000000
504.672,-150.01186000000000,257.65317500000000
504.975,-165.49930500000000,262.2663600000000
505.277,-163.16545500000000,258.33090500000000
505.579,-175.28706000000000,225.65364000000000
505.882,-236.95594500000000,164.25682000000000
506.184,-328.9064750000000,113.23636000000000
506.486,-302.92643,119.80818500000000
506.788,-253.917865,139.4418200000000
507.09,-294.21678000000000,116.29590500000000
507.393,-308.3753500000000,103.64954500000000
507.695,-307.41167500000000,106.01545500000000
507.997,-348.7766450000000,85.26954
508.299,-336.64835500000000,85.68182000000000
508.601,-313.94811000000000,101.80273000000000
508.902,-268.656115,131.2072700000000
509.204,-125.94933500000000,193.3686400000000
509.506,-124.56143000000000,194.715915
509.808,-230.5300350000000,152.70727500000000
510.11,-262.7293750000000,141.69545000000000
510.411,-230.84395000000000,161.076365
510.713,-162.67273000000000,193.25908500000000
511.015,-161.49713000000000,184.09955000000000
511.316,-188.04195500000000,148.79636500000000
511.618,-262.39234,91.73273000000000
511.92,-352.1562600000000,36.85318000000000
512.221,-377.77825500000000,11.40954500000010
512.522,-397.56625500000000,-8.020904999999960
512.824,-324.50618500000000,24.421370000000000
513.125,-258.07738000000000,76.37818500000010
513.427,-267.45084000000000,95.472275
513.728,-269.14266,95.54453999999990
514.029,-252.50086500000000,81.70773500000010
514.331,-245.014585,60.96045000000000
514.632,-256.76046000000000,61.23454000000000
514.933,-200.55395,113.25954500000000
515.234,-160.44077500000000,163.985905
515.535,-145.375765,185.33864000000000
515.836,-133.63209500000000,187.01864
516.137,-169.42493000000000,174.9281800000000
516.438,-160.95230500000000,174.60636500000000
516.739,-147.73839000000000,165.80500000000000
517.04,-186.0666800000000,120.13363500000000
517.341,-241.015,55.466819999999900
517.642,-256.19395,27.876820000000000
517.943,-272.2272300000000,27.88682499999990
518.244,-316.897555,12.776815000000000
518.544,-353.85381,-14.959540000000000
518.845,-397.804755,-45.943635000000000
519.146,-381.42594500000000,-51.298180000000100
519.446,-350.09654,-38.88681999999990
519.747,-378.55343000000000,-48.58409000000000
520.048,-372.22849500000000,-55.33590500000000
520.348,-280.9957300000000,-23.289995000000100
520.649,-213.7342000000000,12.952725000000000
520.949,-183.28311500000000,37.6163600000001
521.249,-233.12213500000000,26.4613599999999
521.55,-282.97111500000000,14.921820000000000
521.85,-249.51011000000000,33.26999500000000
522.151,-246.91297,37.37864000000000
522.451,-256.1223400000000,38.25227500000010
522.751,-265.04738,28.6400000000001
523.051,-260.34832000000000,25.047275000000100
523.351,-245.4530450000000,35.62181500000000
523.652,-243.5652500000000,36.717730000000000
523.952,-208.27367000000000,53.78545999999990
524.252,-175.02709500000000,83.01272500000010
524.552,-84.01727499999990,130.38727000000000
524.852,-110.86825000000000,117.48000000000000
525.152,-185.50413000000000,74.81635999999990
525.452,-173.39140000000000,73.409545
525.752,-191.56011,69.22590500000000
526.051,-179.37143000000000,64.00682000000000
526.351,-219.5020250000000,35.079550000000000
526.651,-268.617345,11.493635000000000
526.951,-245.96189000000000,21.071815000000000
527.251,-206.40339500000000,33.36499499999990
527.55,-198.25835500000000,45.86954999999990
527.85,-212.46706500000000,52.86226999999990
528.15,-125.67391500000000,92.5900049999999
528.449,-71.38800500000000,125.60136500000000
528.749,-101.01443500000000,108.5618200000000
529.048,-110.8091600000000,98.03409000000000
529.348,-130.26130000000000,93.52226999999980
529.647,-90.938315,114.0431900000000
529.946,-90.95314500000010,122.8650000000000
530.246,-139.67157000000000,98.87273000000010
530.545,-157.12752000000000,83.18681500000000
530.844,-154.39248000000000,72.42545999999990
531.144,-156.01252500000000,66.95681000000000
531.443,-165.6863650000000,66.206365
531.742,-139.988455,70.71591500000000
532.041,-95.14972500000000,88.71045000000000
532.34,-107.72538000000000,89.91045999999990
532.64,-102.34569500000000,92.4327300000001
532.939,-90.41458000000010,87.92773
533.238,-90.45454499999990,63.8513650000001
533.537,-144.6803800000000,20.044095000000000
533.836,-201.44738500000000,-9.028639999999880
534.134,-199.80472500000000,-13.24591000000000
534.433,-222.20472500000000,-39.19999999999990
534.732,-228.09143000000000,-76.92818
535.031,-298.05059500000000,-139.1350050000000
535.33,-332.88716500000000,-177.20363500000000
535.629,-341.22126000000000,-197.83273000000000
535.927,-397.7900700000000,-225.21863500000000
536.226,-397.7993650000000,-223.55909
536.525,-346.62241000000000,-196.63136500000000
536.823,-276.02920000000000,-153.07318000000000
537.122,-279.633915,-130.56727
537.42,-287.705415,-124.7563550000000
537.719,-259.3799,-121.11500000000000
538.017,-259.1884600000000,-120.23454500000000
538.316,-186.61853500000000,-73.68864000000010
538.614,-159.91601000000000,-36.52181499999990
538.912,-144.68734000000000,-5.871360000000100
539.211,-100.38598000000000,34.139095
539.509,-84.86003500000000,46.448640000000000
539.807,-101.72038000000000,30.313645000000100
540.106,-99.34206500000010,18.575909999999900
540.404,-101.03157500000000,0.6586299999999030
540.702,-177.353745,-49.86591
541,-171.82045500000000,-68.86545500000010
541.298,-164.02077000000000,-82.02773000000000
541.596,-229.22378000000000,-117.18546000000000
541.894,-269.85605000000000,-136.05954500000000
542.192,-258.0072400000000,-135.304095
542.49,-285.02343000000000,-157.51273000000000
542.788,-327.60268500000000,-181.84272500000000
543.086,-287.81860500000000,-161.65546000000000
543.384,-221.02825000000000,-134.8131800000000
543.682,-207.10605000000000,-138.20954500000000
543.979,-201.134545,-112.69136500000000
544.277,-156.66751500000000,-67.85318000000000
544.575,-109.37716500000000,-52.82590999999990
544.873,-124.77011000000000,-54.68954999999990
545.17,-164.89972000000000,-58.08000000000000
545.468,-185.98109000000000,-58.380910000000100
545.765,-158.46518000000000,-40.400460000000100
546.063,-124.93608500000000,-16.30000000000000
546.36,-123.82213000000000,-16.916815000000000
546.658,-137.89888000000000,-44.99318500000020
546.955,-120.61783500000000,-53.304095000000000
547.253,-112.42486500000000,-65.07273000000000
547.55,-153.47322500000000,-120.71137000000000
547.847,-212.00300500000000,-180.00272500000000
548.145,-251.38055500000000,-193.53499500000000
548.442,-246.6340200000000,-170.02772500000000
548.739,-253.25307500000000,-164.34272500000000
549.037,-240.7631850000000,-166.639545
549.334,-257.38587500000000,-189.82409500000000
549.631,-297.1572350000000,-220.52727500000000
549.928,-274.8605600000000,-216.36409000000000
550.225,-231.20654000000000,-191.75772500000000
550.522,-231.8904150000000,-179.72590500000000
550.819,-198.67066,-152.64636000000000
551.116,-79.55591500000000,-77.10228000000010
551.413,-38.29304000000000,-28.22545000000010
551.71,-107.0729300000000,-48.12681500000000
552.007,-135.9478700000000,-74.14772999999990
552.304,-117.37027500000000,-72.73045000000010
552.6,-98.28352500000000,-65.68727000000010
552.897,-98.81597999999990,-67.81408999999990
553.194,-107.34860000000000,-73.61636500000010
553.491,-127.60702500000000,-88.27454000000010
553.787,-100.52129500000000,-92.6931800000001
554.084,-138.45720000000000,-136.29227000000000
554.381,-204.91539000000000,-198.4327350000000
554.677,-270.98472000000000,-255.37045
554.974,-301.4835650000000,-281.05045000000000
555.27,-291.60570000000000,-284.30545500000000
555.567,-330.5799650000000,-326.43500500000000
555.863,-354.3088400000000,-356.259995
556.159,-374.47216500000000,-355.3181800000000
556.456,-371.676325,-343.9918200000000
556.752,-330.613385,-323.4963600000000
557.049,-332.529365,-325.74818000000000
557.345,-295.27321500000000,-302.7354550000000
557.641,-223.33668000000000,-248.17864000000000
557.937,-163.5267100000000,-200.86954500000000
558.233,-170.55720000000000,-188.57590500000000
558.53,-193.85594000000000,-190.899085
558.826,-162.08143000000000,-174.70045000000000
559.122,-156.92111500000000,-159.67409000000000
559.418,-138.29933500000000,-141.68318000000000
559.714,-157.06458500000000,-150.95227500000000
560.01,-182.28989000000000,-169.4927250000000
560.306,-172.79472500000000,-166.35318500000000
560.602,-146.12549000000000,-146.02727000000000
560.898,-155.21727000000000,-143.65318000000000
561.193,-105.9981100000000,-135.43818000000000
561.489,-99.230635,-149.41455000000000
561.785,-153.5994700000000,-175.47545000000000
562.081,-164.86717000000000,-179.88409500000000
562.376,-165.2711850000000,-178.546365
562.672,-182.09132500000000,-184.86181500000000
562.968,-163.3323450000000,-181.6786400000000
563.263,-145.97927000000000,-177.62636500000000
563.559,-159.01028000000000,-187.18364000000000
563.855,-164.23234000000000,-207.63409000000000
564.15,-207.70266000000000,-254.9327300000000
564.446,-279.05374000000000,-303.29727
564.741,-232.61674500000000,-283.241815
565.036,-178.41587000000000,-250.01682000000000
565.332,-213.40455000000000,-260.7031850000000
565.627,-239.036295,-271.03636500000000
565.923,-254.59832000000000,-271.986365
566.218,-244.77762000000000,-261.87727000000000
566.513,-208.52395500000000,-242.49500000000000
566.808,-179.93895000000000,-228.63091000000000
567.104,-139.96227,-222.74454000000000
567.399,-119.71779500000000,-225.98499500000000
567.694,-147.44797000000000,-228.655905
567.989,-166.9205250000000,-229.458185
568.284,-183.62283500000000,-242.85591000000000
568.579,-165.9630750000000,-240.87409
568.874,-154.426255,-242.173635
569.169,-209.257655,-272.947725
569.464,-263.36440500000000,-299.773635
569.759,-259.58486000000000,-307.11864
570.054,-239.34857,-313.83728000000000
570.349,-255.68878000000000,-329.9800000000000
570.643,-220.71591500000000,-308.3459150000000
570.938,-173.435565,-262.480915
571.233,-142.96056500000000,-241.74318500000000
571.528,-160.1553500000000,-261.2972750000000
571.822,-202.83545000000000,-275.92409000000000
572.117,-137.73150000000000,-254.99090500000000
572.412,-147.9279000000000,-273.44545000000000
572.706,-217.36364000000000,-299.816365
573.001,-217.8914000000000,-309.6054550000000
573.295,-235.29531500000000,-339.124545
573.59,-243.75248,-354.48863500000000
573.884,-269.95322,-363.543635
574.179,-328.0937700000000,-380.84863000000000
574.473,-322.74448000000000,-379.33091000000000
574.767,-242.53034500000000,-337.9327250000000
575.062,-207.0279400000000,-302.428185
575.356,-242.39821500000000,-305.995905
575.65,-134.21765500000000,-254.5422700000000
575.945,-115.12741000000000,-228.24954000000000
576.239,-182.4361850000000,-241.34681500000000
576.533,-99.08692500000000,-195.14636000000000
576.827,-60.8813649999999,-156.3450050000000
577.121,-49.02031999999990,-124.70182000000000
577.415,-26.643639999999900,-95.15955000000000
577.709,-29.36272500000000,-97.96045500000000
578.003,-44.58349500000000,-122.16272500000000
578.297,-87.4921349999999,-147.8431800000000
578.591,-49.89531500000000,-144.21773000000000
578.885,-52.55790000000000,-175.699995
579.179,-109.66664500000000,-225.2459100000000
579.473,-117.3925550000000,-244.77319
579.767,-201.4677250000000,-302.798175
580.061,-242.33993000000000,-344.3881850000000
580.354,-232.94783500000000,-375.36772500000000
580.648,-349.07066500000000,-464.2827250000000
580.942,-444.39874500000000,-524.9981800000000
581.235,-421.6677300000000,-514.5422750000000
581.529,-363.4066100000000,-490.91045500000000
581.823,-393.50367000000000,-529.518175
582.116,-418.2895800000000,-565.9213600000000
582.41,-355.8359450000000,-543.640455
582.703,-398.30531000000000,-560.8790850000000
582.997,-418.6009500000000,-566.14955
583.29,-392.5835650000000,-547.4377250000000
583.584,-412.38014500000000,-554.1131850000000
583.877,-346.4698950000000,-511.4240900000000
584.17,-284.11272500000000,-472.08818500000000
584.464,-387.4537100000000,-525.1413700000000
584.757,-481.9607350000000,-573.609095
585.05,-431.54325000000000,-553.93091
585.344,-366.52399,-503.78636500000000
585.637,-333.32084000000000,-450.34863500000000
585.93,-256.7106350000000,-387.93500000000000
586.223,-207.79822000000000,-334.747275
586.516,-204.60394500000000,-308.51181500000000
586.809,-146.12433000000000,-272.26681000000000
587.102,-137.2978350000000,-252.0731850000000
587.395,-145.73915500000000,-239.99817500000000
587.688,-26.72902000000000,-172.20364000000000
587.981,1.0253149999999700,-131.17000500000000
588.274,-26.501160000000100,-118.16000000000000
588.567,11.361859999999900,-97.44181000000000
588.86,-27.249050000000100,-122.79727000000000
589.153,-66.63115500000000,-143.92318
589.446,-45.724580000000000,-134.2790900000000
589.738,-48.00982500000010,-135.20091000000000
590.031,-38.95706000000000,-132.05954500000000
590.324,-16.083290000000000,-120.09864000000000
590.617,-31.627835000000000,-121.31409000000000
590.909,-21.717235000000000,-123.55909000000000
591.202,-31.151889999999900,-134.55363500000000
591.494,-34.594510000000000,-139.20000500000000
591.787,-26.19779000000010,-154.84409000000000
592.08,-29.91112000000000,-178.83364000000000
592.372,-80.43272999999990,-206.01591000000000
592.665,-143.0774850000000,-230.23818500000000
592.957,-111.29206000000000,-222.43500000000000
593.249,-112.06860000000000,-236.2113650000000
593.542,-138.76238,-260.6059100000000
593.834,-139.76203000000000,-277.23955000000000
594.126,-192.2335300000000,-320.98727500000000
594.419,-213.33696,-336.32455000000000
594.711,-209.95591000000000,-328.47364000000000
595.003,-179.52860000000000,-320.33318500000000
595.295,-139.77118500000000,-305.77682000000000
595.588,-141.39724000000000,-289.9440950000000
595.88,-137.3828350000000,-275.16091000000000
596.172,-173.17829000000000,-295.97318500000000
596.464,-147.0671400000000,-304.3986450000000
596.756,-153.69283500000000,-318.47728000000000
597.048,-204.25762500000000,-331.003185
597.34,-140.35993000000000,-286.31591000000000
597.632,-122.29748500000000,-257.41864000000000
597.924,-151.69811500000000,-254.51000500000000
598.216,-133.63269500000000,-238.38045500000000
598.508,-64.713595,-200.27090500000000
598.799,-36.9091949999999,-179.39499500000000
599.091,-59.63238000000010,-195.38136500000000
599.383,-59.44822000000000,-213.17682000000000
599.675,-88.11098000000000,-225.605455
599.966,-22.33681500000020,-190.39454500000000
600.258,7.573885000000070,-180.08818000000000
600.55,-90.39556500000000,-237.08091000000000
600.841,-133.06922500000000,-272.11681500000000
601.133,-159.6851100000000,-296.483185
601.425,-208.94836500000000,-333.6850050000000
601.716,-248.61511,-362.73500000000000
602.008,-226.20294000000000,-361.15455
602.299,-220.57136500000000,-356.2690950000000
602.591,-193.43532000000000,-329.8881850000000
602.882,-150.74759000000000,-291.95454500000000
603.173,-169.5543000000000,-284.6259100000000
603.465,-122.92307000000000,-254.43227
603.756,-25.419129999999900,-198.51727500000000
604.047,-22.382450000000100,-178.1981800000000
604.339,-11.10650000000000,-166.29681000000000
604.63,13.31790500000010,-169.36409000000000
604.921,-64.93804500000010,-216.1927300000000
605.212,-123.62636000000000,-246.46227000000000
605.503,-79.75692499999990,-241.67409000000000
605.795,-122.78420000000000,-277.88864000000000
606.086,-196.5395450000000,-319.79727
606.377,-205.92132500000000,-332.43090500000000
606.668,-221.2390200000000,-352.28272500000000
606.959,-231.84147000000000,-373.98272500000000
607.25,-214.69479500000000,-379.664095
607.541,-246.55059000000000,-401.90500000000000
607.832,-256.470495,-403.8072800000000
608.122,-159.07699500000000,-342.03681500000000
608.413,-173.0558350000000,-326.76227000000000
608.704,-214.47549000000000,-333.7177250000000
608.995,-138.00920000000000,-286.7368200000000
609.286,-89.56541500000000,-242.70318000000000
609.576,-78.00902500000020,-233.6140900000000
609.867,-104.75842500000000,-258.934085
610.158,-141.13674500000000,-274.67545
610.448,-108.7234300000000,-247.444545
610.739,-45.59874500000010,-212.54636500000000
611.03,-53.31450999999990,-211.702725
611.32,-79.17559000000010,-229.41954500000000
611.611,-88.07514000000010,-249.5890950000000
611.901,-150.25472000000000,-273.66318500000000
612.192,-157.1275850000000,-271.8313600000000
612.482,-124.99493000000000,-279.81590500000000
612.773,-156.18105000000000,-323.87682000000000
613.063,-186.47087,-344.04363
613.353,-165.34587,-322.491365
613.644,-188.13779500000000,-333.56045000000000
613.934,-235.2473050000000,-366.893635
614.224,-187.6293700000000,-350.1786350000000
614.515,-186.44531500000000,-348.26818000000000
614.805,-159.01039000000000,-336.74773000000000
615.095,-90.80136500000000,-325.43000000000000
615.385,-240.36045000000000,-418.20772
615.675,-334.95941000000000,-474.87228000000000
615.965,-266.6715450000000,-442.2440950000000
616.255,-219.16115000000000,-395.39181500000000
616.546,-236.52539000000000,-389.57363500000000
616.836,-208.68370000000000,-404.80181500000000
617.126,-246.94189000000000,-444.0559100000000
617.415,-353.6218900000000,-483.92773
617.705,-305.78577000000000,-456.59909000000000
617.995,-273.10003500000000,-439.1877250000000
618.285,-263.79545000000000,-434.6968150000000
618.575,-163.842485,-379.55045500000000
618.865,-157.80280000000000,-335.01728000000000
619.155,-178.38591000000000,-314.40182000000000
619.444,-142.2543650000000,-303.4368150000000
619.734,-147.05276500000000,-329.6004550000000
620.024,-194.57734500000000,-362.92318
620.314,-136.17566000000000,-313.40317500000000
620.603,-58.60437000000000,-255.028635
620.893,-157.20934,-302.45591
621.182,-151.19814500000000,-327.2295450000000
621.472,-97.91090499999980,-284.98818000000000
621.761,-89.96066000000010,-234.64136000000000
622.051,-83.49881000000010,-218.1577250000000
622.34,-111.06696000000000,-226.99227500000000
622.63,-90.97349500000000,-224.21909000000000
622.919,-40.63933999999990,-198.88591000000000
623.209,33.969089999999900,-147.285455
623.498,18.65168499999990,-139.13045500000000
623.787,-47.55523999999990,-166.87408500000000
624.077,11.502930000000000,-136.8695500000000
624.366,40.37279499999990,-102.39227500000000
624.655,49.895414999999900,-116.26272500000000
624.944,22.01332000000010,-144.02682000000000
625.234,-43.46573000000000,-152.8681750000000
625.523,-30.196755000000000,-141.24864000000000
625.812,-17.375040000000000,-133.601365
626.101,4.1305900000001000,-125.24864000000000
626.39,17.376680000000000,-120.442725
626.679,19.90989500000000,-123.32136000000000
626.968,17.73161000000000,-118.28727000000000
627.257,14.119960000000000,-108.13727500000000
627.546,16.301825000000000,-106.31727000000000
627.835,2.7833199999999600,-117.17318000000000
628.124,29.75503500000000,-114.87500000000000
628.413,15.200595000000000,-129.56773000000000
628.702,-45.20475000000010,-159.28590500000000
628.991,-35.3699949999999,-166.7736350000000
629.279,-30.264890000000100,-185.45545000000000
629.568,-65.89601500000000,-216.05182000000000
629.857,-47.67489000000000,-230.96772500000000
630.146,-65.47654000000010,-270.268635
630.434,-164.80919500000000,-339.38590500000000
630.723,-223.55311000000000,-391.1654500000000
631.012,-276.20713,-429.84909000000000
631.3,-307.49241000000000,-441.92590500000000
631.589,-256.4502450000000,-412.79272500000000
631.877,-225.82196,-399.50455
632.166,-283.935105,-434.039545
632.455,-290.11109,-440.16500000000000
632.743,-237.67601000000000,-411.2854500000000
633.031,-222.41056500000000,-396.69500000000000
633.32,-183.72972500000000,-367.99455000000000
633.608,-113.1598600000000,-306.37681500000000
633.897,-74.10206500000000,-250.88863500000000
634.185,-40.06367,-210.93726500000000
634.473,-48.1273799999999,-197.79181500000000
634.762,-77.44612000000010,-208.34455000000000
635.05,-69.12020999999990,-204.3445500000000
635.338,10.236254999999900,-165.67500000000000
635.626,24.26719999999990,-160.77818500000000
635.914,-40.31136000000000,-196.00636000000000
636.203,-43.09010500000010,-201.81727000000000
636.491,-13.428184999999900,-185.8977350000000
636.779,-31.358455000000100,-201.24727000000000
637.067,-96.22163999999990,-239.17318500000000
637.355,-101.39346500000000,-242.661365
637.643,-97.67784000000000,-244.99955000000000
637.931,-60.77982500000010,-256.1195500000000
638.219,-116.30604500000000,-454.2995400000000
638.507,-279.7422000000000,-691.68045
638.795,-310.34647000000000,-720.5954550000000
639.083,-273.5375200000000,-694.786365
639.37,-276.0101350000000,-682.5463600000000
639.658,-293.3132500000000,-680.202275
639.946,-249.58440500000000,-656.1127250000000
640.234,-200.89409500000000,-638.13409
640.522,-248.9679050000000,-669.474545
640.809,-303.3878000000000,-702.89364
641.097,-309.4426250000000,-703.64455
641.385,-170.235135,-497.547725
641.672,-42.34353000000000,-264.72409
641.96,-56.8200750000001,-218.13500500000000
642.247,-39.025705000000000,-195.88455
642.535,-48.67206500000010,-206.24773000000000
642.822,-91.95084000000000,-224.60954500000000
643.11,-92.73269000000000,-226.96909000000000
643.397,-56.357695000000000,-225.5772750000000
643.685,-24.79045999999990,-221.94227500000000
643.972,-43.61342500000000,-226.08454500000000
644.26,-91.82978500000000,-237.75181000000000
644.547,-84.50213,-247.95317500000000
644.834,-115.43741,-295.24636
645.122,-201.56147000000000,-354.55409
645.409,-253.37265500000000,-385.08091
645.696,-189.24769000000000,-366.8090900000000
645.984,-165.5319600000000,-362.81409000000000
646.271,-217.17346000000000,-404.851365
646.558,-268.86006500000000,-453.44000000000000
646.845,-300.2081100000000,-461.96363500000000
647.132,-231.674265,-414.0804500000000
647.419,-238.27664000000000,-404.99318000000000
647.706,-284.6785300000000,-415.89545500000000
647.993,-192.38943500000000,-361.86272500000000
648.28,-111.28304000000000,-298.2740850000000
648.567,-132.1241350000000,-283.955005
648.854,-160.47832000000000,-289.41545500000000
649.141,-103.81556,-263.9
649.428,-59.45010499999990,-235.16863500000000
649.715,-4.880559999999950,-188.0786400000000
650.002,16.50832500000010,-150.11363500000000
650.289,-42.757869999999900,-158.6118250000000
650.576,3.2382149999999700,-132.0872750000000
650.862,20.18881499999990,-114.18227000000000
651.149,1.2835699999999500,-120.46363500000000
651.436,28.961465000000000,-133.43864000000000
651.723,-12.043179999999900,-177.66409000000000
652.009,-79.33408999999990,-212.4609100000000
652.296,-81.64734000000000,-219.20363000000000
652.583,-61.990660000000100,-216.56545500000000
652.869,-68.4959750000001,-214.8686350000000
653.156,-67.31972000000010,-208.19954500000000
653.442,-62.227515000000100,-204.40772000000000
653.729,-84.53293000000010,-217.17090500000000
654.015,-60.82723500000000,-222.65454500000000
654.302,-87.51559500000000,-255.329095
654.588,-119.97894500000000,-276.8304500000000
654.875,-40.909789999999800,-237.69045500000000
655.161,6.594965000000000,-216.14454000000000
655.448,-80.66685500000010,-266.4054550000000
655.734,-141.26538500000000,-301.33681500000000
656.02,-113.80531500000000,-288.63727
656.306,-109.7082550000000,-302.5900000000000
656.593,-163.2723400000000,-361.941365
656.879,-279.58815000000000,-440.7131850000000
657.165,-341.16986000000000,-480.8027250000000
657.451,-323.97976000000000,-479.52591500000000
657.738,-339.29752000000000,-482.965455
658.024,-362.8158700000000,-500.96136
658.31,-395.11434000000000,-537.1031850000000
658.596,-370.14856500000000,-546.706815
658.882,-430.989365,-580.01318
659.168,-577.6162250000000,-647.7822700000000
659.454,-581.7493000000000,-669.9440900000000
659.74,-559.627595,-662.15773
660.026,-480.81428000000000,-609.8000000000000
660.312,-518.739955,-614.3085
660.598,-554.2740600000000,-637.9544500000000
660.884,-567.6179150000000,-657.6306250000000
661.17,-608.0950950000000,-691.6935800000000
661.455,-565.6388100000000,-688.0991650000000